 # z (AU) T (K)
       0.763376        17.7993
        2.29013        17.8475
        3.81688        17.8694
        5.34363        17.9061
        6.87038        17.9551
        8.39714        18.0382
        9.92389        18.1240
        11.4506        18.2325
        12.9774        18.3365
        14.5041        18.4766
        16.0309        18.6305
        17.5576        18.8083
        19.0844        19.0131
        20.6112        19.2322
        22.1379        19.4724
        23.6647        19.7397
        25.1914        20.0628
        26.7182        20.4559
        28.2449        20.9034
        29.7717        21.4429
        31.2984        22.0829
        32.8252        22.8675
        34.3519        23.7929
        35.8787        24.9331
        37.4054        26.4703
        38.9322        28.9629
        40.4589        32.3173
        41.9857        35.6051
        43.5124        38.2608
        45.0392        40.2006
        46.5659        41.5469
        48.0927        42.4582
        49.6194        43.0626
        51.1462        43.4558
        52.6729        43.7140
        54.1997        43.8826
        55.7264        43.9884
        57.2532        44.0527
        58.7800        44.0883
        60.3067        44.1046
        61.8335        44.1081
        63.3602        44.1001
        64.8870        44.0841
        66.4137        44.0655
        67.9405        44.0445
        69.4672        44.0200
        70.9940        43.9944
        72.5207        43.9669
        74.0475        43.9363
        75.5742        43.9041
        77.1010        43.8707
        78.6277        43.8361
        80.1545        43.8002
        81.6812        43.7656
        83.2080        43.7305
        84.7347        43.6952
        86.2615        43.6581
        87.7882        43.6205
        89.3150        43.5819
        90.8417        43.5423
        92.3685        43.5019
        93.8952        43.4609
        95.4220        43.4212
        96.9487        43.3800
        98.4755        43.3393
        100.002        43.2975
        101.529        43.2560
        103.056        43.2119
        104.583        43.1674
        106.109        43.1227
        107.636        43.0795
        109.163        43.0362
        110.690        42.9928
        112.216        42.9483
        113.743        42.9040
        115.270        42.8589
        116.797        42.8134
        118.323        42.7671
        119.850        42.7196
        121.377        42.6728
        122.904        42.6252
        124.430        42.5773
        125.957        42.5307
        127.484        42.4836
        129.011        42.4363
        130.537        42.3886
        132.064        42.3399
        133.591        42.2906
        135.118        42.2407
        136.644        42.1924
        138.171        42.1430
        139.698        42.0939
        141.225        42.0457
        142.751        41.9969
        144.278        41.9477
        145.805        41.8976
        147.332        41.8466
        148.858        41.7962
        150.385        41.7446
        151.912        41.6942
