 # z (AU) T (K)
       0.763376        17.3043
        2.29013        17.3123
        3.81688        17.3461
        5.34363        17.3764
        6.87038        17.4173
        8.39714        17.4886
        9.92389        17.5704
        11.4506        17.6519
        12.9774        17.7520
        14.5041        17.8459
        16.0309        17.9491
        17.5576        18.0780
        19.0844        18.2164
        20.6112        18.3475
        22.1379        18.4878
        23.6647        18.6478
        25.1914        18.8075
        26.7182        18.9852
        28.2449        19.1899
        29.7717        19.3845
        31.2984        19.6041
        32.8252        19.8165
        34.3519        20.0545
        35.8787        20.2908
        37.4054        20.5500
        38.9322        20.8303
        40.4589        21.1373
        41.9857        21.4420
        43.5124        21.7963
        45.0392        22.1899
        46.5659        22.6561
        48.0927        23.2005
        49.6194        23.8406
        51.1462        24.5930
        52.6729        25.5342
        54.1997        26.9561
        55.7264        29.1321
        57.2532        31.8367
        58.7800        34.5544
        60.3067        36.9395
        61.8335        38.8709
        63.3602        40.3700
        64.8870        41.4975
        66.4137        42.3266
        67.9405        42.9319
        69.4672        43.3658
        70.9940        43.6693
        72.5207        43.8802
        74.0475        44.0239
        75.5742        44.1172
        77.1010        44.1753
        78.6277        44.2075
        80.1545        44.2205
        81.6812        44.2180
        83.2080        44.2059
        84.7347        44.1861
        86.2615        44.1623
        87.7882        44.1334
        89.3150        44.1002
        90.8417        44.0644
        92.3685        44.0288
        93.8952        43.9925
        95.4220        43.9558
        96.9487        43.9165
        98.4755        43.8754
        100.002        43.8320
        101.529        43.7892
        103.056        43.7458
        104.583        43.7025
        106.109        43.6599
        107.636        43.6161
        109.163        43.5714
        110.690        43.5256
        112.216        43.4792
        113.743        43.4336
        115.270        43.3866
        116.797        43.3404
        118.323        43.2941
        119.850        43.2475
        121.377        43.2004
        122.904        43.1527
        124.430        43.1042
        125.957        43.0562
        127.484        43.0077
        129.011        42.9589
        130.537        42.9100
        132.064        42.8607
        133.591        42.8118
        135.118        42.7618
        136.644        42.7118
        138.171        42.6628
        139.698        42.6132
        141.225        42.5631
        142.751        42.5138
        144.278        42.4625
        145.805        42.4105
        147.332        42.3589
        148.858        42.3068
        150.385        42.2552
        151.912        42.2047
