 # z (AU) T (K)
       0.763376        17.9528
        2.29013        17.9687
        3.81688        17.9895
        5.34363        18.0212
        6.87038        18.0577
        8.39714        18.1095
        9.92389        18.1742
        11.4506        18.2380
        12.9774        18.3234
        14.5041        18.4244
        16.0309        18.5242
        17.5576        18.6486
        19.0844        18.7744
        20.6112        18.9199
        22.1379        19.0781
        23.6647        19.2535
        25.1914        19.4459
        26.7182        19.6499
        28.2449        19.8603
        29.7717        20.1232
        31.2984        20.3982
        32.8252        20.6805
        34.3519        21.0140
        35.8787        21.4028
        37.4054        21.8544
        38.9322        22.4073
        40.4589        23.0690
        41.9857        23.8418
        43.5124        24.8041
        45.0392        26.1893
        46.5659        28.4753
        48.0927        31.5275
        49.6194        34.6104
        51.1462        37.2320
        52.6729        39.2642
        54.1997        40.7631
        55.7264        41.8414
        57.2532        42.6029
        58.7800        43.1339
        60.3067        43.5020
        61.8335        43.7531
        63.3602        43.9231
        64.8870        44.0346
        66.4137        44.1046
        67.9405        44.1448
        69.4672        44.1634
        70.9940        44.1679
        72.5207        44.1628
        74.0475        44.1493
        75.5742        44.1294
        77.1010        44.1054
        78.6277        44.0778
        80.1545        44.0476
        81.6812        44.0150
        83.2080        43.9812
        84.7347        43.9466
        86.2615        43.9102
        87.7882        43.8735
        89.3150        43.8354
        90.8417        43.7975
        92.3685        43.7577
        93.8952        43.7181
        95.4220        43.6778
        96.9487        43.6370
        98.4755        43.5948
        100.002        43.5527
        101.529        43.5105
        103.056        43.4680
        104.583        43.4243
        106.109        43.3804
        107.636        43.3361
        109.163        43.2924
        110.690        43.2478
        112.216        43.2028
        113.743        43.1570
        115.270        43.1107
        116.797        43.0652
        118.323        43.0182
        119.850        42.9710
        121.377        42.9241
        122.904        42.8766
        124.430        42.8291
        125.957        42.7815
        127.484        42.7336
        129.011        42.6845
        130.537        42.6366
        132.064        42.5883
        133.591        42.5392
        135.118        42.4898
        136.644        42.4399
        138.171        42.3896
        139.698        42.3397
        141.225        42.2898
        142.751        42.2404
        144.278        42.1910
        145.805        42.1411
        147.332        42.0911
        148.858        42.0404
        150.385        41.9887
        151.912        41.9370
