 # z (AU) T (K)
       0.763376        17.6578
        2.29013        17.6546
        3.81688        17.6885
        5.34363        17.7358
        6.87038        17.7924
        8.39714        17.8618
        9.92389        17.9690
        11.4506        18.0711
        12.9774        18.1824
        14.5041        18.3236
        16.0309        18.4753
        17.5576        18.6474
        19.0844        18.8356
        20.6112        19.0644
        22.1379        19.2781
        23.6647        19.5250
        25.1914        19.7779
        26.7182        20.0675
        28.2449        20.3824
        29.7717        20.6873
        31.2984        21.0437
        32.8252        21.4150
        34.3519        21.8309
        35.8787        22.2928
        37.4054        22.8199
        38.9322        23.4197
        40.4589        24.1059
        41.9857        24.9065
        43.5124        25.8521
        45.0392        27.1653
        46.5659        29.1334
        48.0927        31.7038
        49.6194        34.4447
        51.1462        36.9490
        52.6729        39.0310
        54.1997        40.6625
        55.7264        41.8832
        57.2532        42.7589
        58.7800        43.3627
        60.3067        43.7679
        61.8335        44.0346
        63.3602        44.2056
        64.8870        44.3126
        66.4137        44.3751
        67.9405        44.4050
        69.4672        44.4137
        70.9940        44.4060
        72.5207        44.3853
        74.0475        44.3588
        75.5742        44.3253
        77.1010        44.2858
        78.6277        44.2438
        80.1545        44.2014
        81.6812        44.1574
        83.2080        44.1117
        84.7347        44.0633
        86.2615        44.0132
        87.7882        43.9641
        89.3150        43.9148
        90.8417        43.8659
        92.3685        43.8169
        93.8952        43.7667
        95.4220        43.7163
        96.9487        43.6654
        98.4755        43.6155
        100.002        43.5656
        101.529        43.5155
        103.056        43.4646
        104.583        43.4141
        106.109        43.3633
        107.636        43.3132
        109.163        43.2632
        110.690        43.2121
        112.216        43.1604
        113.743        43.1088
        115.270        43.0573
        116.797        43.0064
        118.323        42.9561
        119.850        42.9050
        121.377        42.8542
        122.904        42.8025
        124.430        42.7506
        125.957        42.6990
        127.484        42.6471
        129.011        42.5944
        130.537        42.5418
        132.064        42.4896
        133.591        42.4368
        135.118        42.3846
        136.644        42.3318
        138.171        42.2787
        139.698        42.2266
        141.225        42.1738
        142.751        42.1217
        144.278        42.0704
        145.805        42.0175
        147.332        41.9658
        148.858        41.9138
        150.385        41.8612
        151.912        41.8076
