 # z (AU) T (K)
       0.763376        17.8743
        2.29013        17.9147
        3.81688        17.9358
        5.34363        18.0055
        6.87038        18.1223
        8.39714        18.1990
        9.92389        18.3719
        11.4506        18.5358
        12.9774        18.7531
        14.5041        18.9770
        16.0309        19.2430
        17.5576        19.6157
        19.0844        20.0139
        20.6112        20.5421
        22.1379        21.1604
        23.6647        21.9096
        25.1914        22.7853
        26.7182        23.8297
        28.2449        25.0059
        29.7717        26.3725
        31.2984        28.4626
        32.8252        31.5989
        34.3519        35.0239
        35.8787        37.9224
        37.4054        40.0617
        38.9322        41.5273
        40.4589        42.4833
        41.9857        43.0928
        43.5124        43.4748
        45.0392        43.7110
        46.5659        43.8557
        48.0927        43.9405
        49.6194        43.9864
        51.1462        44.0118
        52.6729        44.0210
        54.1997        44.0197
        55.7264        44.0080
        57.2532        43.9924
        58.7800        43.9762
        60.3067        43.9551
        61.8335        43.9290
        63.3602        43.9033
        64.8870        43.8771
        66.4137        43.8481
        67.9405        43.8187
        69.4672        43.7891
        70.9940        43.7585
        72.5207        43.7268
        74.0475        43.6940
        75.5742        43.6599
        77.1010        43.6260
        78.6277        43.5926
        80.1545        43.5595
        81.6812        43.5253
        83.2080        43.4882
        84.7347        43.4511
        86.2615        43.4133
        87.7882        43.3748
        89.3150        43.3378
        90.8417        43.2999
        92.3685        43.2625
        93.8952        43.2218
        95.4220        43.1828
        96.9487        43.1422
        98.4755        43.1017
        100.002        43.0591
        101.529        43.0165
        103.056        42.9757
        104.583        42.9351
        106.109        42.8939
        107.636        42.8496
        109.163        42.8038
        110.690        42.7580
        112.216        42.7140
        113.743        42.6707
        115.270        42.6271
        116.797        42.5830
        118.323        42.5371
        119.850        42.4905
        121.377        42.4438
        122.904        42.3975
        124.430        42.3523
        125.957        42.3059
        127.484        42.2586
        129.011        42.2109
        130.537        42.1628
        132.064        42.1144
        133.591        42.0671
        135.118        42.0194
        136.644        41.9716
        138.171        41.9246
        139.698        41.8772
        141.225        41.8286
        142.751        41.7794
        144.278        41.7311
        145.805        41.6810
        147.332        41.6313
        148.858        41.5821
        150.385        41.5323
        151.912        41.4821
