 # z (AU) T (K)
       0.763376        18.4126
        2.29013        18.4353
        3.81688        18.4713
        5.34363        18.5215
        6.87038        18.6092
        8.39714        18.7044
        9.92389        18.8136
        11.4506        18.9625
        12.9774        19.1034
        14.5041        19.2873
        16.0309        19.4801
        17.5576        19.6978
        19.0844        19.9297
        20.6112        20.1862
        22.1379        20.4816
        23.6647        20.7997
        25.1914        21.1601
        26.7182        21.5686
        28.2449        22.0613
        29.7717        22.6083
        31.2984        23.2605
        32.8252        24.0068
        34.3519        24.8981
        35.8787        26.0931
        37.4054        27.8009
        38.9322        30.1318
        40.4589        32.7746
        41.9857        35.3384
        43.5124        37.5785
        45.0392        39.4154
        46.5659        40.8587
        48.0927        41.9592
        49.6194        42.7756
        51.1462        43.3622
        52.6729        43.7613
        54.1997        44.0130
        55.7264        44.1606
        57.2532        44.2472
        58.7800        44.2934
        60.3067        44.3075
        61.8335        44.3031
        63.3602        44.2878
        64.8870        44.2648
        66.4137        44.2361
        67.9405        44.2031
        69.4672        44.1681
        70.9940        44.1299
        72.5207        44.0896
        74.0475        44.0486
        75.5742        44.0086
        77.1010        43.9656
        78.6277        43.9219
        80.1545        43.8782
        81.6812        43.8349
        83.2080        43.7899
        84.7347        43.7449
        86.2615        43.7001
        87.7882        43.6541
        89.3150        43.6066
        90.8417        43.5606
        92.3685        43.5160
        93.8952        43.4709
        95.4220        43.4242
        96.9487        43.3764
        98.4755        43.3292
        100.002        43.2812
        101.529        43.2340
        103.056        43.1860
        104.583        43.1385
        106.109        43.0906
        107.636        43.0439
        109.163        42.9955
        110.690        42.9470
        112.216        42.8988
        113.743        42.8500
        115.270        42.8015
        116.797        42.7520
        118.323        42.7026
        119.850        42.6533
        121.377        42.6041
        122.904        42.5546
        124.430        42.5045
        125.957        42.4547
        127.484        42.4035
        129.011        42.3526
        130.537        42.3019
        132.064        42.2513
        133.591        42.2015
        135.118        42.1514
        136.644        42.1011
        138.171        42.0509
        139.698        41.9999
        141.225        41.9490
        142.751        41.8975
        144.278        41.8463
        145.805        41.7948
        147.332        41.7428
        148.858        41.6915
        150.385        41.6404
        151.912        41.5893
