 # z (AU) T (K)
       0.763376        19.2805
        2.29013        19.3307
        3.81688        19.3534
        5.34363        19.4361
        6.87038        19.5544
        8.39714        19.6791
        9.92389        19.8322
        11.4506        20.0170
        12.9774        20.2517
        14.5041        20.4855
        16.0309        20.8056
        17.5576        21.1489
        19.0844        21.5712
        20.6112        22.0529
        22.1379        22.6253
        23.6647        23.2890
        25.1914        24.1021
        26.7182        25.1429
        28.2449        26.6135
        29.7717        28.6039
        31.2984        30.9522
        32.8252        33.3548
        34.3519        35.5879
        35.8787        37.5303
        37.4054        39.1519
        38.9322        40.4660
        40.4589        41.5079
        41.9857        42.3224
        43.5124        42.9465
        45.0392        43.4097
        46.5659        43.7330
        48.0927        43.9473
        49.6194        44.0750
        51.1462        44.1405
        52.6729        44.1671
        54.1997        44.1701
        55.7264        44.1609
        57.2532        44.1420
        58.7800        44.1154
        60.3067        44.0874
        61.8335        44.0566
        63.3602        44.0209
        64.8870        43.9859
        66.4137        43.9501
        67.9405        43.9125
        69.4672        43.8731
        70.9940        43.8325
        72.5207        43.7934
        74.0475        43.7545
        75.5742        43.7154
        77.1010        43.6767
        78.6277        43.6368
        80.1545        43.5957
        81.6812        43.5523
        83.2080        43.5094
        84.7347        43.4676
        86.2615        43.4249
        87.7882        43.3832
        89.3150        43.3385
        90.8417        43.2939
        92.3685        43.2488
        93.8952        43.2060
        95.4220        43.1648
        96.9487        43.1227
        98.4755        43.0770
        100.002        43.0307
        101.529        42.9848
        103.056        42.9399
        104.583        42.8949
        106.109        42.8491
        107.636        42.8026
        109.163        42.7552
        110.690        42.7077
        112.216        42.6608
        113.743        42.6146
        115.270        42.5680
        116.797        42.5222
        118.323        42.4743
        119.850        42.4262
        121.377        42.3786
        122.904        42.3294
        124.430        42.2818
        125.957        42.2334
        127.484        42.1852
        129.011        42.1376
        130.537        42.0888
        132.064        42.0401
        133.591        41.9917
        135.118        41.9410
        136.644        41.8904
        138.171        41.8408
        139.698        41.7902
        141.225        41.7404
        142.751        41.6930
        144.278        41.6442
        145.805        41.5943
        147.332        41.5449
        148.858        41.4950
        150.385        41.4432
        151.912        41.3931
