 # z (AU) T (K)
       0.763376        16.2215
        2.29013        16.2400
        3.81688        16.2496
        5.34363        16.3039
        6.87038        16.3589
        8.39714        16.4272
        9.92389        16.5125
        11.4506        16.6065
        12.9774        16.7235
        14.5041        16.8442
        16.0309        16.9753
        17.5576        17.1134
        19.0844        17.2803
        20.6112        17.4653
        22.1379        17.6631
        23.6647        17.8726
        25.1914        18.0855
        26.7182        18.3282
        28.2449        18.5833
        29.7717        18.8465
        31.2984        19.1563
        32.8252        19.4556
        34.3519        19.8065
        35.8787        20.1533
        37.4054        20.5259
        38.9322        20.9167
        40.4589        21.3334
        41.9857        21.7813
        43.5124        22.2617
        45.0392        22.7771
        46.5659        23.3591
        48.0927        24.0198
        49.6194        24.7520
        51.1462        25.5761
        52.6729        26.5471
        54.1997        27.8730
        55.7264        29.8217
        57.2532        32.3094
        58.7800        34.9247
        60.3067        37.2925
        61.8335        39.2466
        63.3602        40.7671
        64.8870        41.9066
        66.4137        42.7418
        67.9405        43.3428
        69.4672        43.7683
        70.9940        44.0624
        72.5207        44.2595
        74.0475        44.3880
        75.5742        44.4667
        77.1010        44.5071
        78.6277        44.5208
        80.1545        44.5146
        81.6812        44.4948
        83.2080        44.4631
        84.7347        44.4240
        86.2615        44.3799
        87.7882        44.3333
        89.3150        44.2846
        90.8417        44.2336
        92.3685        44.1817
        93.8952        44.1276
        95.4220        44.0722
        96.9487        44.0159
        98.4755        43.9600
        100.002        43.9045
        101.529        43.8503
        103.056        43.7954
        104.583        43.7411
        106.109        43.6851
        107.636        43.6297
        109.163        43.5752
        110.690        43.5213
        112.216        43.4670
        113.743        43.4123
        115.270        43.3570
        116.797        43.3027
        118.323        43.2487
        119.850        43.1940
        121.377        43.1397
        122.904        43.0857
        124.430        43.0313
        125.957        42.9763
        127.484        42.9218
        129.011        42.8676
        130.537        42.8142
        132.064        42.7617
        133.591        42.7076
        135.118        42.6527
        136.644        42.5973
        138.171        42.5426
        139.698        42.4886
        141.225        42.4351
        142.751        42.3815
        144.278        42.3276
        145.805        42.2722
        147.332        42.2165
        148.858        42.1614
        150.385        42.1080
        151.912        42.0551
